File: raw_data/uM/0/(09-12-2022) EIS Estabilização ABL@PMB-ITO - Leite desnatado.txt
Index	Frequency (Hz)	Z' (Ω)	-Z'' (Ω)	Z (Ω)	-Phase (°)	Time (s)
1	100000	86.698	5.49849	86.8722	3.62891	127.735
2	79433	87.1416	5.04686	87.2876	3.31462	129.652
3	63096	87.5775	4.69866	87.7035	3.07105	131.899
4	50119	88.0199	4.45149	88.1324	2.89519	134.401
5	39811	88.4085	4.2906	88.5126	2.77847	136.639
6	31623	88.8572	4.21036	88.9569	2.71284	139.036
7	25119	89.2916	4.22847	89.3917	2.71126	144.998
8	19953	89.6893	4.31663	89.7931	2.75545	149.685
9	15849	90.1404	4.48969	90.2521	2.85142	152.122
10	12589	90.6477	4.76771	90.773	3.01075	154.849
11	10000	91.2382	4.94542	91.3721	3.10259	158.913
12	7943.3	91.719	5.55216	91.8869	3.46414	164.099
13	6309.6	92.3255	6.06747	92.5247	3.75997	166.826
14	5011.9	93.0649	6.68766	93.3048	4.11022	169.743
15	3981.1	93.7969	7.38562	94.0873	4.50221	172.64
16	3162.3	94.5929	8.24503	94.9516	4.9815	175.547
17	2511.9	95.4869	9.20709	95.9297	5.50758	178.519
18	1995.3	96.5029	10.3291	97.0541	6.10937	181.536
19	1584.9	97.6346	11.5996	98.3212	6.77535	184.563
20	1258.9	98.839	13.1084	99.7045	7.55471	187.67
21	1000	100.157	14.7885	101.243	8.39918	191.183
22	794.33	101.644	16.7913	103.021	9.38039	194.875
23	630.96	103.126	19.0771	104.875	10.4806	198.517
24	501.19	104.661	21.8311	106.914	11.7823	202.099
25	398.11	106.175	25.1099	109.104	13.3057	205.756
26	316.23	107.715	29.2303	111.611	15.1825	209.528
27	251.19	109.226	34.2862	114.481	17.4271	213.475
28	199.53	110.755	40.829	118.041	20.236	217.262
29	158.49	112.445	49.0602	122.682	23.5718	221.294
30	125.89	114.423	59.495	128.966	27.4724	225.591
31	100	116.843	72.5271	137.523	31.8289	233.584
32	79.433	119.887	89.1221	149.384	36.6266	238.046
33	63.096	124.487	110.126	166.206	41.4971	242.083
34	50.119	129.637	134.248	186.623	46.0011	246.531
35	39.811	137.574	166.382	215.893	50.414	250.763
36	31.623	149.176	205.056	253.577	53.9646	255.05
37	25.119	164.594	250.426	299.674	56.6849	259.402
38	19.953	187.124	306.407	359.027	58.5875	264.099
39	15.849	219.624	371.915	431.92	59.4372	269.346
40	12.589	262.128	446.195	517.495	59.5669	274.303
41	10	322.708	534.236	624.139	58.8657	280.25
42	7.9433	407.205	624.151	745.239	56.879	286.147
43	6.3096	505.949	718.364	878.653	54.8427	301.344
44	5.0119	637	811.313	1031.5	51.8629	313.776
45	3.9811	798.591	889.505	1195.39	48.0827	327.995
46	3.1623	967.471	952.099	1357.38	44.5412	334.367
47	2.5119	1160.39	973.668	1514.77	39.9997	341.379
48	1.9953	1344.99	974.356	1660.84	35.9208	348.386
49	1.5849	1533.64	956.386	1807.41	31.9478	355.574
50	1.2589	1673.05	920.907	1909.75	28.83	362.961
51	1	1838.48	843.391	2022.7	24.6429	373.14
52	0.79433	1988.24	723.596	2115.81	19.9984	381.102
53	0.63096	2156.18	820.401	2306.98	20.8312	385.799
54	0.50119	2181.71	611.352	2265.75	15.6537	390.766
55	0.39811	2295.5	552.432	2361.04	13.5314	395.988
56	0.31623	2508.28	520.38	2561.69	11.7206	401.83
57	0.25119	2391.67	531.61	2450.04	12.5317	408.853
58	0.19953	2527.56	537.741	2584.12	12.0107	416.08
59	0.15849	2538.59	406.237	2570.89	9.09165	424.692
60	0.12589	2572.81	384.268	2601.35	8.49475	434.544
61	0.1	2600.84	315.552	2619.91	6.9177	446.001