File: raw_data/uM/0/(09-12-2022) EIS Estabilização ABL@PMB-ITO(5).txt
Index	Frequency (Hz)	Z' (Ω)	-Z'' (Ω)	Z (Ω)	-Phase (°)	Time (s)
1	100000	64.1229	6.70324	64.4723	5.96787	1805.82
2	79433	65.0693	6.44289	65.3875	5.65476	1807.84
3	63096	65.9746	6.14056	66.2598	5.31746	1810.11
4	50119	66.8177	5.83193	67.0717	4.98821	1812.5
5	39811	67.557	5.53254	67.7832	4.68175	1814.82
6	31623	68.2184	5.29304	68.4234	4.43667	1817.19
7	25119	68.8739	5.08105	69.0611	4.21925	1819.54
8	19953	69.4126	4.97504	69.5907	4.09958	1821.97
9	15849	69.9587	4.93542	70.1326	4.03539	1824.46
10	12589	70.5002	4.99187	70.6767	4.05015	1826.98
11	10000	70.9927	5.16948	71.1807	4.16476	1834.49
12	7943.3	71.5695	5.40781	71.7735	4.32107	1837.04
13	6309.6	72.1287	5.74703	72.3573	4.55556	1839.71
14	5011.9	72.7547	6.20816	73.0191	4.87723	1842.42
15	3981.1	73.4135	6.77996	73.726	5.27647	1845.22
16	3162.3	74.1209	7.46258	74.4956	5.74923	1848.1
17	2511.9	74.8654	8.26503	75.3202	6.29986	1851
18	1995.3	75.7322	9.21992	76.2913	6.94125	1853.94
19	1584.9	76.71	10.3959	77.4112	7.71783	1856.88
20	1258.9	77.669	11.7072	78.5464	8.5718	1859.94
21	1000	78.7643	13.2832	79.8765	9.57255	1863.03
22	794.33	79.9421	15.1374	81.3626	10.7223	1866.27
23	630.96	81.1389	17.3589	82.975	12.0758	1869.52
24	501.19	82.2932	20.0308	84.696	13.6802	1872.99
25	398.11	83.574	23.3727	86.7807	15.6245	1878.79
26	316.23	84.7562	27.4937	89.104	17.9723	1882.36
27	251.19	85.989	32.7539	92.0159	20.8522	1886.33
28	199.53	87.3205	39.4369	95.813	24.3055	1890.21
29	158.49	88.7191	47.8113	100.782	28.3205	1894.27
30	125.89	90.4472	58.3732	107.648	32.8376	1898.42
31	100	92.696	71.6929	117.185	37.7191	1902.69
32	79.433	95.8125	88.2695	130.275	42.6535	1907.09
33	63.096	100.184	108.28	147.517	47.224	1911.6
34	50.119	106.422	134.114	171.208	51.5674	1916.5
35	39.811	113.452	165.324	200.508	55.5405	1921.26
36	31.623	125.151	204.258	239.55	58.5039	1925.46
37	25.119	140.481	250.471	287.178	60.7133	1929.62
38	19.953	162.897	304.57	345.396	61.8602	1934.29
39	15.849	192.055	369.594	416.515	62.5418	1939.47
40	12.589	238.885	446.587	506.464	61.8571	1944.39
41	10	297.478	530.386	608.114	60.7132	1950.15
42	7.9433	373.715	625.901	728.982	59.1593	1956.03
43	6.3096	476.549	720.388	863.747	56.5147	1970.95
44	5.0119	610.953	810.691	1015.13	52.9976	1983.21
45	3.9811	766.299	884.491	1170.27	49.0952	1997.16
46	3.1623	941.068	942.564	1331.93	45.0455	2003.36
47	2.5119	1128.66	979.604	1494.49	40.9558	2010
48	1.9953	1319.52	982.98	1645.41	36.6844	2016.83
49	1.5849	1505.23	958.885	1784.71	32.4986	2024.18
50	1.2589	1679.03	956.893	1932.56	29.6791	2031.37
51	1	1846.73	867.604	2040.38	25.1644	2043.25
52	0.79433	1978.15	815.928	2139.82	22.4147	2050.97
53	0.63096	2070.8	702.156	2186.6	18.7305	2059.16
54	0.50119	2193.62	647.997	2287.33	16.4572	2064
55	0.39811	2251.89	656.229	2345.55	16.2468	2069.19
56	0.31623	2321.99	578.645	2393	13.9932	2074.95
57	0.25119	2418.28	467.696	2463.1	10.9459	2081.19
58	0.19953	2424.5	445.908	2465.17	10.4212	2088.43
59	0.15849	2500.39	407.869	2533.44	9.26459	2096.62
60	0.12589	2594.15	519.79	2645.71	11.3303	2106.18
61	0.1	2566.3	536.656	2621.81	11.8113	2117.37