File: raw_data/uM/0/(09-12-2022) EIS Estabilização ABL@PMB-ITO - Leite desnatado(1).txt
Index	Frequency (Hz)	Z' (Ω)	-Z'' (Ω)	Z (Ω)	-Phase (°)	Time (s)
1	100000	86.6583	5.45503	86.8298	3.60195	468.326
2	79433	87.0981	4.99689	87.2413	3.28351	470.418
3	63096	87.6064	4.65754	87.7302	3.04323	472.75
4	50119	88.0249	4.42594	88.1361	2.87844	475.177
5	39811	88.4311	4.25236	88.5333	2.75305	477.674
6	31623	88.8275	4.1955	88.9265	2.70418	479.956
7	25119	89.258	4.19921	89.3568	2.69353	482.468
8	19953	89.6558	4.30928	89.7593	2.75179	484.965
9	15849	90.0752	4.50935	90.188	2.86595	487.572
10	12589	90.6015	4.77384	90.7272	3.01615	490.219
11	10000	91.1689	4.93269	91.3022	3.09697	494.343
12	7943.3	91.6886	5.53158	91.8554	3.45247	499.674
13	6309.6	92.312	6.05325	92.5103	3.75173	502.411
14	5011.9	92.9654	6.67128	93.2044	4.10456	505.398
15	3981.1	93.7563	7.40261	94.0481	4.51447	508.365
16	3162.3	94.5419	8.23961	94.9003	4.98091	511.307
17	2511.9	95.4704	9.21737	95.9143	5.51463	514.39
18	1995.3	96.5227	10.3154	97.0724	6.10008	517.537
19	1584.9	97.59	11.5921	98.2761	6.77405	520.659
20	1258.9	98.8853	13.1007	99.7494	7.54679	523.906
21	1000	100.167	14.7847	101.252	8.3963	527.598
22	794.33	101.583	16.7719	102.959	9.37524	531.345
23	630.96	103.157	19.0575	104.902	10.467	538.703
24	501.19	104.67	21.7885	106.914	11.759	542.495
25	398.11	106.255	25.1018	109.18	13.2919	546.297
26	316.23	107.828	29.2115	111.715	15.1581	550.184
27	251.19	109.324	34.3191	114.584	17.4282	554.316
28	199.53	110.957	40.8807	118.249	20.2256	558.473
29	158.49	112.551	49.0972	122.794	23.5678	562.745
30	125.89	114.489	59.4499	129.004	27.4411	567.298
31	100	116.924	72.6108	137.636	31.8406	572.365
32	79.433	119.876	89.113	149.37	36.6262	577.352
33	63.096	124.577	110.06	166.231	41.4595	581.569
34	50.119	130.208	134.583	187.261	45.9466	585.981
35	39.811	137.573	166.565	216.033	50.4452	590.418
36	31.623	149.602	204.898	253.7	53.8658	595.04
37	25.119	164.972	251.533	300.807	56.7405	599.692
38	19.953	187.005	306.963	359.44	58.6498	604.649
39	15.849	218.629	374.554	433.692	59.7276	609.986
40	12.589	262.771	452.286	523.079	59.8441	615.118
41	10	322.987	535.106	625.027	58.8851	621.321
42	7.9433	402.613	624.498	743.031	57.1902	636.132
43	6.3096	515.202	724.542	889.041	54.5844	642.604
44	5.0119	637.253	813.829	1033.64	51.938	655.146
45	3.9811	801.794	884.146	1193.56	47.7965	669.74
46	3.1623	974.548	938.927	1353.27	43.9335	676.493
47	2.5119	1171.12	985.492	1530.59	40.0804	683.57
48	1.9953	1355.2	976.891	1670.59	35.7858	690.747
49	1.5849	1545.82	959.662	1819.48	31.8325	698.119
50	1.2589	1721.19	917.764	1950.58	28.0672	705.731
51	1	1869.36	865.122	2059.84	24.8342	718.007
52	0.79433	2033.06	803.969	2186.25	21.5763	723.044
53	0.63096	2126	703.682	2239.43	18.3139	727.631
54	0.50119	2271.55	518.364	2329.95	12.8547	732.554
55	0.39811	2327.61	595.076	2402.47	14.3411	737.756
56	0.31623	2374.61	374.824	2404.01	8.96992	743.993
57	0.25119	2408.76	506.616	2461.46	11.8775	750.64
58	0.19953	2392.39	429.199	2430.59	10.1707	757.897
59	0.15849	2574.04	542.715	2630.63	11.906	766.154
60	0.12589	2541.33	447.501	2580.43	9.98678	775.711
61	0.1	2611.26	371.905	2637.61	8.10575	787.064