File: raw_data/nM/0/(09-12-2022) EIS Estabilização ABL@PMB-ITO - Leite desnatado(2).txt
Index	Frequency (Hz)	Z' (Ω)	-Z'' (Ω)	Z (Ω)	-Phase (°)	Time (s)
1	100000	86.8174	5.48593	86.9905	3.61568	808.753
2	79433	87.2134	5.01425	87.3574	3.29054	810.825
3	63096	87.6757	4.6807	87.8006	3.05592	813.087
4	50119	88.1203	4.41192	88.2307	2.86623	815.854
5	39811	88.5684	4.26599	88.6711	2.75758	818.226
6	31623	88.9374	4.19931	89.0365	2.7033	820.628
7	25119	89.4104	4.22483	89.5101	2.70533	823.16
8	19953	89.8098	4.31544	89.9134	2.751	825.567
9	15849	90.1817	4.48291	90.2931	2.84582	828.139
10	12589	90.7193	4.77187	90.8447	3.011	830.801
11	10000	91.2729	4.93297	91.4061	3.09362	834.9
12	7943.3	91.8112	5.55564	91.9791	3.46283	840.172
13	6309.6	92.4526	6.08549	92.6526	3.76594	842.899
14	5011.9	93.1149	6.69454	93.3553	4.11223	845.761
15	3981.1	93.8867	7.40727	94.1784	4.51105	848.673
16	3162.3	94.6918	8.24539	95.0501	4.97654	851.645
17	2511.9	95.6582	9.2367	96.1031	5.51535	854.662
18	1995.3	96.6916	10.3415	97.2431	6.1048	857.804
19	1584.9	97.7511	11.6165	98.4389	6.77712	860.931
20	1258.9	99.0036	13.0823	99.8642	7.52742	864.208
21	1000	100.299	14.7873	101.383	8.38684	867.8
22	794.33	101.686	16.7525	103.057	9.35526	871.722
23	630.96	103.224	19.0507	104.968	10.4566	876.044
24	501.19	104.726	21.8007	106.971	11.7592	880.841
25	398.11	106.329	25.0898	109.249	13.2768	884.478
26	316.23	107.8	29.234	111.693	15.173	889.195
27	251.19	109.366	34.3645	114.638	17.4435	893.778
28	199.53	110.837	40.8974	118.141	20.2535	897.955
29	158.49	112.645	49.1512	122.901	23.5735	906.428
30	125.89	114.607	59.6488	129.2	27.4955	910.74
31	100	116.972	72.799	137.776	31.8966	916.657
32	79.433	119.965	89.3652	149.592	36.6834	921.614
33	63.096	123.497	109.259	164.891	41.4995	926.181
34	50.119	128.898	134.707	186.442	46.2625	930.993
35	39.811	137.342	166.955	216.187	50.5583	935.455
36	31.623	148.932	205.371	253.689	54.0509	939.957
37	25.119	164.224	252.749	301.416	56.9862	944.394
38	19.953	186.384	308.017	360.019	58.8215	949.257
39	15.849	216.405	373.331	431.517	59.9009	954.884
40	12.589	260.785	453.798	523.394	60.1152	960.021
41	10	321.188	537.946	626.536	59.1601	966.338
42	7.9433	403.39	628.542	746.852	57.3082	972.56
43	6.3096	504.175	734.544	890.925	55.5351	988.066
44	5.0119	638.869	822.883	1041.77	52.175	1000.72
45	3.9811	792.619	906.397	1204.08	48.8312	1009.54
46	3.1623	975.987	964.23	1371.97	44.6528	1020.17
47	2.5119	1180.59	1001.77	1548.33	40.3158	1031.49
48	1.9953	1409.18	1045.7	1754.79	36.5777	1043.23
49	1.5849	1583.75	983.599	1864.33	31.8426	1054.4
50	1.2589	1735.6	937.612	1972.67	28.3789	1066.3
51	1	1873.09	954.722	2102.37	27.0082	1082.17
52	0.79433	2047.82	867.178	2223.86	22.9509	1093.5
53	0.63096	2128.63	760.976	2260.57	19.6717	1105.37
54	0.50119	2226.02	688.372	2330.03	17.1836	1110.28
55	0.39811	2365.39	584.888	2436.63	13.8889	1116.13
56	0.31623	2361.74	567.098	2428.87	13.5022	1123.08
57	0.25119	2511.04	457.029	2552.29	10.3154	1130.05
58	0.19953	2632.55	448.653	2670.5	9.67174	1138.1
59	0.15849	2699.55	489.227	2743.52	10.272	1147.01
60	0.12589	2579.95	465.237	2621.56	10.2222	1157.23
61	0.1	2586.43	479.219	2630.45	10.4968	1168.94