File: raw_data/nM/0/(09-12-2022) EIS Estabilização ABL@PMB-ITO - Adoçante.txt
Index	Frequency (Hz)	Z' (Ω)	-Z'' (Ω)	Z (Ω)	-Phase (°)	Time (s)
1	100000	88.7678	6.53153	89.0078	4.20824	127.602
2	79433	89.407	5.99239	89.6076	3.83444	129.579
3	63096	90.0287	5.59132	90.2022	3.55384	131.831
4	50119	90.6092	5.27084	90.7624	3.32921	134.218
5	39811	91.169	5.04838	91.3087	3.16945	136.451
6	31623	91.6591	4.90574	91.7903	3.06363	138.903
7	25119	92.1708	4.85165	92.2984	3.01313	141.41
8	19953	92.6603	4.9005	92.7898	3.02736	143.927
9	15849	93.2527	4.75649	93.374	2.91993	150.17
10	12589	93.8274	5.05209	93.9634	3.08209	152.747
11	10000	94.3613	5.41537	94.5166	3.28459	155.439
12	7943.3	94.9158	6.02958	95.1072	3.63486	160.8
13	6309.6	95.5662	6.55274	95.7906	3.92249	163.512
14	5011.9	96.3269	7.16417	96.5929	4.25346	166.419
15	3981.1	97.1231	7.86578	97.4411	4.63015	169.361
16	3162.3	98.0163	8.73528	98.4048	5.09278	172.363
17	2511.9	98.9713	9.68878	99.4444	5.59115	175.445
18	1995.3	100.071	10.8375	100.656	6.18097	178.597
19	1584.9	101.256	12.1431	101.981	6.83851	181.764
20	1258.9	102.57	13.6284	103.472	7.5685	185.086
21	1000	103.991	15.3145	105.113	8.37754	188.343
22	794.33	105.512	17.3007	106.92	9.31189	192.121
23	630.96	107.119	19.616	108.9	10.3772	195.868
24	501.19	108.834	22.3514	111.105	11.6056	199.78
25	398.11	110.417	25.5724	113.34	13.0397	203.507
26	316.23	112.142	29.6305	115.991	14.8006	207.429
27	251.19	113.724	34.677	118.893	16.9577	211.446
28	199.53	115.225	41.0402	122.316	19.6046	215.593
29	158.49	117.056	49.1241	126.946	22.7659	219.925
30	125.89	119.008	59.4137	133.015	26.5302	224.387
31	100	121.225	72.4995	141.25	30.8819	229.034
32	79.433	124.259	88.578	152.599	35.4831	233.811
33	63.096	128.41	109.77	168.934	40.5251	238.713
34	50.119	132.921	134.979	189.439	45.4401	246.897
35	39.811	141.299	165.648	217.726	49.5356	251.114
36	31.623	151.474	204.306	254.333	53.4464	255.536
37	25.119	167.795	249.75	300.883	56.1048	260.108
38	19.953	190.345	304.773	359.33	58.0133	264.875
39	15.849	218.879	371.96	431.581	59.5254	269.817
40	12.589	261.874	446.889	517.965	59.6299	275.509
41	10	320.297	537.15	625.396	59.1928	281.591
42	7.9433	394.063	623.629	737.698	57.7118	296.267
43	6.3096	509.091	732.118	891.724	55.1865	302.505
44	5.0119	627.569	827.659	1038.68	52.8289	315.677
45	3.9811	786.629	908.846	1201.99	49.123	322.044
46	3.1623	980.442	989.913	1393.27	45.2754	328.656
47	2.5119	1177.21	1042.41	1572.4	41.5248	335.478
48	1.9953	1376.78	1060.16	1737.66	37.5971	342.72
49	1.5849	1581.42	1010.76	1876.84	32.5845	350.232
50	1.2589	1746.88	980.13	2003.06	29.2957	357.91
51	1	1904.02	882.795	2098.72	24.8747	370.351
52	0.79433	2016.34	882.554	2201.03	23.639	378.448
53	0.63096	2296.12	699.998	2400.45	16.9544	383.87
54	0.50119	2283.3	777.182	2411.95	18.7974	388.922
55	0.39811	2353.13	622.046	2433.96	14.8073	394.434
56	0.31623	2478.83	514.59	2531.68	11.7277	400.451
57	0.25119	2613.67	452.259	2652.51	9.81703	406.919
58	0.19953	2560.23	518.105	2612.13	11.4402	414.186
59	0.15849	2642.28	472.383	2684.18	10.1362	422.728
60	0.12589	2604.98	472.334	2647.45	10.2772	432.375
61	0.1	2621.13	441.026	2657.97	9.55102	443.837