File: raw_data/nM/0/(09-12-2022) EIS Estabilização ABL@PMB-ITO - Adoçante(1).txt
Index	Frequency (Hz)	Z' (Ω)	-Z'' (Ω)	Z (Ω)	-Phase (°)	Time (s)
1	100000	88.6538	6.3439	88.8805	4.093	465.387
2	79433	89.2718	5.88553	89.4656	3.77195	467.404
3	63096	89.8703	5.48859	90.0378	3.49485	469.691
4	50119	90.4235	5.1952	90.5727	3.28826	472.033
5	39811	91.033	4.96929	91.1686	3.12455	474.365
6	31623	91.5061	4.84177	91.6341	3.02881	476.687
7	25119	91.9707	4.81091	92.0964	2.99437	479.129
8	19953	92.4813	4.85546	92.6087	3.00539	481.486
9	15849	93.0862	4.72193	93.2058	2.90392	487.664
10	12589	93.6735	5.02269	93.808	3.06921	490.141
11	10000	94.1828	5.39379	94.3372	3.27771	492.843
12	7943.3	94.7371	6.0244	94.9285	3.63858	498.119
13	6309.6	95.4226	6.51176	95.6445	3.90388	500.781
14	5011.9	96.1496	7.14028	96.4143	4.24712	503.623
15	3981.1	96.9755	7.85678	97.2933	4.63188	506.39
16	3162.3	97.8538	8.72178	98.2417	5.09336	509.307
17	2511.9	98.8523	9.70416	99.3275	5.60666	512.274
18	1995.3	99.9427	10.8289	100.528	6.18392	515.327
19	1584.9	101.078	12.0928	101.798	6.82236	518.419
20	1258.9	102.448	13.6059	103.347	7.5651	521.556
21	1000	103.83	15.2823	104.949	8.37298	524.763
22	794.33	105.352	17.2637	106.757	9.30613	528.405
23	630.96	106.915	19.5643	108.69	10.3698	531.882
24	501.19	108.843	22.2716	111.098	11.5643	535.799
25	398.11	110.415	25.5067	113.323	13.0076	539.601
26	316.23	112.113	29.5645	115.945	14.7728	543.598
27	251.19	113.681	34.6023	118.831	16.9292	547.735
28	199.53	115.473	40.9781	122.529	19.5383	555.518
29	158.49	117.177	49.1313	127.06	22.7479	559.64
30	125.89	119.1	59.4829	133.128	26.5392	564.062
31	100	121.366	72.2682	141.253	30.772	568.59
32	79.433	124.401	88.6167	152.737	35.464	573.277
33	63.096	129.025	109.17	169.014	40.235	578.174
34	50.119	132.751	134.315	188.847	45.3356	582.876
35	39.811	141.101	165.501	217.486	49.55	587.513
36	31.623	151.469	203.724	253.863	53.3693	591.98
37	25.119	167.483	250.499	301.331	56.2334	596.677
38	19.953	188.358	305.546	358.939	58.3477	601.589
39	15.849	220.065	371.324	431.636	59.3469	606.486
40	12.589	258.316	449.203	518.179	60.0988	611.968
41	10	320.204	535.978	624.342	59.1451	617.585
42	7.9433	401.305	626.929	744.369	57.3762	632.257
43	6.3096	503.102	735.109	890.784	55.6126	638.604
44	5.0119	634.194	829.412	1044.09	52.5973	651.766
45	3.9811	792.682	905.391	1203.36	48.7974	658.068
46	3.1623	969.367	971.138	1372.15	45.0523	664.66
47	2.5119	1185.56	990.492	1544.87	39.8775	671.632
48	1.9953	1368.07	1020.89	1706.99	36.7313	678.84
49	1.5849	1579.22	1002.48	1870.54	32.4073	686.422
50	1.2589	1754.2	994.599	2016.54	29.5524	694.084
51	1	1916.17	890.542	2113	24.9268	701.128
52	0.79433	2037.48	828.518	2199.49	22.1286	709.19
53	0.63096	2139.62	710.449	2254.48	18.3685	717.632
54	0.50119	2249.14	610.894	2330.63	15.1956	722.459
55	0.39811	2316.16	607.393	2394.48	14.6944	731.782
56	0.31623	2335.33	500.959	2388.45	12.1072	737.809
57	0.25119	2500.27	481.784	2546.27	10.9068	744.411
58	0.19953	2424.66	389.393	2455.73	9.12361	751.568
59	0.15849	2443.63	464.583	2487.4	10.7646	759.985
60	0.12589	2580.56	507.914	2630.07	11.1348	769.482
61	0.1	2782.94	382.97	2809.17	7.83545	780.824