File: raw_data/nM/0/(09-12-2022) EIS Estabilização ABL@PMB-ITO - Adoçante(2).txt
Index	Frequency (Hz)	Z' (Ω)	-Z'' (Ω)	Z (Ω)	-Phase (°)	Time (s)
1	100000	88.6567	6.38818	88.8865	4.12134	802.529
2	79433	89.3863	5.92163	89.5822	3.79018	804.561
3	63096	90.004	5.53835	90.1742	3.52123	807.758
4	50119	90.6049	5.24388	90.7565	3.31238	810.105
5	39811	91.1757	5.0412	91.3149	3.16472	812.427
6	31623	91.6937	4.89211	91.8241	3.05399	814.764
7	25119	92.1497	4.86604	92.2781	3.02274	817.216
8	19953	92.7047	4.92233	92.8353	3.03937	819.633
9	15849	93.3016	4.77048	93.4235	2.92697	825.766
10	12589	93.8699	5.06362	94.0064	3.08771	828.248
11	10000	94.3985	5.42705	94.5543	3.29036	830.9
12	7943.3	94.9749	6.03276	95.1663	3.63452	836.381
13	6309.6	95.6718	6.54254	95.8953	3.9121	839.054
14	5011.9	96.3813	7.13341	96.6449	4.23288	841.881
15	3981.1	97.2207	7.89368	97.5406	4.64186	845.783
16	3162.3	98.0656	8.70535	98.4512	5.07289	848.69
17	2511.9	99.0537	9.67911	99.5254	5.58098	851.702
18	1995.3	100.14	10.8242	100.724	6.16918	854.714
19	1584.9	101.329	12.1109	102.05	6.8157	857.751
20	1258.9	102.683	13.6346	103.584	7.56368	860.893
21	1000	104.058	15.2797	105.174	8.35352	864.095
22	794.33	105.591	17.2866	106.996	9.29762	867.797
23	630.96	107.249	19.5432	109.015	10.3273	871.159
24	501.19	108.882	22.2837	111.139	11.5664	875.011
25	398.11	110.524	25.5259	113.434	13.0046	878.748
26	316.23	112.118	29.5448	115.946	14.7627	882.595
27	251.19	113.686	34.6578	118.851	16.9541	886.732
28	199.53	115.329	40.863	122.354	19.5102	890.894
29	158.49	117.177	49.076	127.039	22.7249	898.733
30	125.89	119.05	59.3922	133.043	26.5139	902.99
31	100	121.469	72.324	141.37	30.7699	907.462
32	79.433	124.291	88.5529	152.61	35.4685	912.034
33	63.096	128.138	109.743	168.709	40.5782	916.971
34	50.119	133.413	135.218	189.955	45.3849	921.563
35	39.811	141.396	165.462	217.648	49.4845	925.865
36	31.623	151.262	203.49	253.551	53.3752	930.232
37	25.119	167.636	250.284	301.237	56.1864	934.759
38	19.953	189.11	305.649	359.421	58.2542	939.556
39	15.849	218.395	369.605	429.307	59.4217	944.383
40	12.589	264.151	450.655	522.365	59.6234	950.056
41	10	321.829	534.877	624.233	58.9652	955.698
42	7.9433	396.771	631.65	745.929	57.865	970.349
43	6.3096	508.259	733.724	892.569	55.2892	976.556
44	5.0119	644.231	823.364	1045.45	51.959	989.893
45	3.9811	795.649	905.367	1205.3	48.6906	996.55
46	3.1623	961.748	963.069	1361.05	45.0393	1003.17
47	2.5119	1181.26	986.846	1539.23	39.8761	1010.16
48	1.9953	1338.61	1013.74	1679.15	37.137	1017.44
49	1.5849	1580.38	975.631	1857.27	31.6888	1024.89
50	1.2589	1739.38	945.396	1979.7	28.5251	1029.41
51	1	1924.96	961.644	2151.8	26.5451	1039.76
52	0.79433	2052.15	820.121	2209.96	21.7836	1047.97
53	0.63096	2038.18	751.813	2172.42	20.2472	1052.66
54	0.50119	2193.28	646.671	2286.63	16.4277	1057.49
55	0.39811	2420.8	644.886	2505.22	14.9168	1062.67
56	0.31623	2634.93	385.92	2663.04	8.33248	1068.45
57	0.25119	2470.74	500.927	2521.01	11.461	1074.89
58	0.19953	2616.47	536.811	2670.97	11.5943	1082.21
59	0.15849	2539.73	320.131	2559.83	7.18419	1090.67
60	0.12589	2809.33	390.49	2836.34	7.91328	1100.5
61	0.1	2542.8	529.895	2597.42	11.7714	1111.8